  Detailed Percentile spectrum:
       Value   Percentile   TotalCount 1/(1-Percentile)

       2.467     0.000000            1         1.00
       3.359     0.100000        90914         1.11
       3.861     0.200000       181748         1.25
       4.471     0.300000       273114         1.43
       5.211     0.400000       363548         1.67
       6.151     0.500000       454544         2.00
       6.775     0.550000       500047         2.22
       7.511     0.600000       545256         2.50
       8.503     0.650000       590842         2.86
       9.887     0.700000       636203         3.33
      12.071     0.750000       681616         4.00
      13.751     0.775000       704304         4.44
      16.167     0.800000       726966         5.00
      19.919     0.825000       749696         5.71
      26.447     0.850000       772401         6.67
      40.415     0.875000       795144         8.00
      55.615     0.887500       806478         8.89
      81.151     0.900000       817833        10.00
     119.999     0.912500       829199        11.43
     200.447     0.925000       840562        13.33
     385.023     0.937500       851914        16.00
     507.135     0.943750       857591        17.78
     640.511     0.950000       863279        20.00
     789.503     0.956250       868954        22.86
     958.463     0.962500       874642        26.67
    1146.879     0.968750       880321        32.00
    1261.567     0.971875       883151        35.56
    1397.759     0.975000       885991        40.00
    1551.359     0.978125       888837        45.71
    1732.607     0.981250       891675        53.33
    1952.767     0.984375       894508        64.00
    2093.055     0.985938       895929        71.11
    2287.615     0.987500       897354        80.00
    2521.087     0.989062       898771        91.43
    2813.951     0.990625       900191       106.67
    3065.855     0.992188       901606       128.00
    3215.359     0.992969       902316       142.22
    3393.535     0.993750       903025       160.00
    3624.959     0.994531       903741       182.86
    3921.919     0.995313       904445       213.33
    4292.607     0.996094       905159       256.00
    4521.983     0.996484       905513       284.44
    4747.263     0.996875       905868       320.00
    4980.735     0.997266       906224       365.71
    5255.167     0.997656       906576       426.67
    5554.175     0.998047       906929       512.00
    5693.439     0.998242       907106       568.89
    5820.415     0.998437       907288       640.00
    5926.911     0.998633       907462       731.43
    6189.055     0.998828       907639       853.33
    6537.215     0.999023       907817      1024.00
    6737.919     0.999121       907907      1137.78
    6922.239     0.999219       907994      1280.00
    7069.695     0.999316       908082      1462.86
    7229.439     0.999414       908171      1706.67
    7483.391     0.999512       908261      2048.00
    7729.151     0.999561       908304      2275.56
    7917.567     0.999609       908349      2560.00
    8081.407     0.999658       908393      2925.71
    8245.247     0.999707       908437      3413.33
    8404.991     0.999756       908482      4096.00
    8544.255     0.999780       908505      4551.11
    8634.367     0.999805       908528      5120.00
    8888.319     0.999829       908548      5851.43
    9060.351     0.999854       908570      6826.67
    9371.647     0.999878       908593      8192.00
    9551.871     0.999890       908604      9102.22
    9682.943     0.999902       908615     10240.00
    9805.823     0.999915       908627     11702.86
    9895.935     0.999927       908637     13653.33
    9986.047     0.999939       908648     16384.00
   10018.815     0.999945       908654     18204.44
   10092.543     0.999951       908659     20480.00
   10190.847     0.999957       908665     23405.71
   10256.383     0.999963       908670     27306.67
   10354.687     0.999969       908676     32768.00
   10395.647     0.999973       908679     36408.89
   10412.031     0.999976       908681     40960.00
   10461.183     0.999979       908684     46811.43
   10477.567     0.999982       908687     54613.33
   10502.143     0.999985       908690     65536.00
   10526.719     0.999986       908691     72817.78
   10534.911     0.999988       908692     81920.00
   10608.639     0.999989       908694     93622.86
   10616.831     0.999991       908695    109226.67
   10665.983     0.999992       908697    131072.00
   10665.983     0.999993       908697    145635.56
   10682.367     0.999994       908698    163840.00
   10698.751     0.999995       908699    187245.71
   10698.751     0.999995       908699    218453.33
   10731.519     0.999996       908700    262144.00
   10731.519     0.999997       908700    291271.11
   10747.903     0.999997       908701    327680.00
   10747.903     0.999997       908701    374491.43
   10747.903     0.999998       908701    436906.67
   10772.479     0.999998       908702    524288.00
   10772.479     0.999998       908702    582542.22
   10772.479     0.999998       908702    655360.00
   10772.479     0.999999       908702    748982.86
   10772.479     0.999999       908702    873813.33
   10846.207     0.999999       908703   1048576.00
   10846.207     1.000000       908703          inf
#[Mean    =      117.039, StdDeviation   =      530.824]
#[Max     =    10838.016, Total count    =       908703]
#[Buckets =           27, SubBuckets     =         2048]